# Name: W, 120.0 kV, 15 deg, 3.5 mm Al
# Continuos spectrum
# Dimension: 120
1.0000e+00 0
2.0000e+00 0
3.0000e+00 0
4.0000e+00 0
5.0000e+00 0
6.0000e+00 0
7.0000e+00 0
8.0000e+00 0
9.0000e+00 0
1.0000e+01 0
1.1000e+01 0
1.2000e+01 0
1.3000e+01 0
1.4000e+01 0
1.5000e+01 1
1.6000e+01 4
1.7000e+01 12
1.8000e+01 30
1.9000e+01 61
2.0000e+01 111
2.1000e+01 180
2.2000e+01 271
2.3000e+01 380
2.4000e+01 505
2.5000e+01 640
2.6000e+01 782
2.7000e+01 925
2.8000e+01 1064
2.9000e+01 1197
3.0000e+01 1321
3.1000e+01 1432
3.2000e+01 1532
3.3000e+01 1618
3.4000e+01 1691
3.5000e+01 1752
3.6000e+01 1800
3.7000e+01 1837
3.8000e+01 1864
3.9000e+01 1881
4.0000e+01 1890
4.1000e+01 1892
4.2000e+01 1888
4.3000e+01 1877
4.4000e+01 1862
4.5000e+01 1843
4.6000e+01 1821
4.7000e+01 1795
4.8000e+01 1767
4.9000e+01 1738
5.0000e+01 1706
5.1000e+01 1674
5.2000e+01 1640
5.3000e+01 1606
5.4000e+01 1572
5.5000e+01 1537
5.6000e+01 1502
5.7000e+01 1468
5.8000e+01 1434
5.9000e+01 1399
6.0000e+01 1364
6.1000e+01 1331
6.2000e+01 1297
6.3000e+01 1264
6.4000e+01 1232
6.5000e+01 1200
6.6000e+01 1168
6.7000e+01 1138
6.8000e+01 1107
6.9000e+01 1078
7.0000e+01 879
7.1000e+01 828
7.2000e+01 813
7.3000e+01 798
7.4000e+01 782
7.5000e+01 766
7.6000e+01 750
7.7000e+01 733
7.8000e+01 717
7.9000e+01 700
8.0000e+01 683
8.1000e+01 666
8.2000e+01 649
8.3000e+01 632
8.4000e+01 615
8.5000e+01 597
8.6000e+01 580
8.7000e+01 562
8.8000e+01 545
8.9000e+01 527
9.0000e+01 510
9.1000e+01 492
9.2000e+01 474
9.3000e+01 457
9.4000e+01 439
9.5000e+01 422
9.6000e+01 404
9.7000e+01 386
9.8000e+01 369
9.9000e+01 351
1.0000e+02 334
1.0100e+02 316
1.0200e+02 299
1.0300e+02 282
1.0400e+02 264
1.0500e+02 247
1.0600e+02 230
1.0700e+02 213
1.0800e+02 196
1.0900e+02 179
1.1000e+02 162
1.1100e+02 145
1.1200e+02 129
1.1300e+02 112
1.1400e+02 96
1.1500e+02 79
1.1600e+02 63
1.1700e+02 47
1.1800e+02 31
1.1900e+02 15
1.2000e+02 1
# Discrete spectrum
# Dimension: 4
5.7980e+01 2639
5.9320e+01 4670
6.7200e+01 1648
6.9100e+01 439
