# Name: 140.0 kV
# Continuous spectrum
# Dimension: 140
1.0000e+00 0
2.0000e+00 0
3.0000e+00 0
4.0000e+00 0
5.0000e+00 0
6.0000e+00 0
7.0000e+00 0
8.0000e+00 0
9.0000e+00 0
1.0000e+01 0
1.1000e+01 0
1.2000e+01 0
1.3000e+01 0
1.4000e+01 0
1.5000e+01 0
1.6000e+01 0
1.7000e+01 0
1.8000e+01 0
1.9000e+01 0
2.0000e+01 0
2.1000e+01 0
2.2000e+01 0
2.3000e+01 0
2.4000e+01 0
2.5000e+01 1
2.6000e+01 3
2.7000e+01 8
2.8000e+01 15
2.9000e+01 27
3.0000e+01 45
3.1000e+01 70
3.2000e+01 103
3.3000e+01 144
3.4000e+01 194
3.5000e+01 251
3.6000e+01 315
3.7000e+01 386
3.8000e+01 460
3.9000e+01 539
4.0000e+01 619
4.1000e+01 700
4.2000e+01 780
4.3000e+01 858
4.4000e+01 934
4.5000e+01 1006
4.6000e+01 1075
4.7000e+01 1138
4.8000e+01 1197
4.9000e+01 1251
5.0000e+01 1300
5.1000e+01 1344
5.2000e+01 1383
5.3000e+01 1417
5.4000e+01 1446
5.5000e+01 1471
5.6000e+01 1491
5.7000e+01 1508
5.8000e+01 1520
5.9000e+01 1530
6.0000e+01 1535
6.1000e+01 1538
6.2000e+01 1538
6.3000e+01 1535
6.4000e+01 1530
6.5000e+01 1524
6.6000e+01 1515
6.7000e+01 1504
6.8000e+01 1492
6.9000e+01 1479
7.0000e+01 1161
7.1000e+01 1099
7.2000e+01 1098
7.3000e+01 1096
7.4000e+01 1092
7.5000e+01 1088
7.6000e+01 1082
7.7000e+01 1076
7.8000e+01 1068
7.9000e+01 1060
8.0000e+01 1050
8.1000e+01 1040
8.2000e+01 1029
8.3000e+01 1018
8.4000e+01 1006
8.5000e+01 993
8.6000e+01 980
8.7000e+01 966
8.8000e+01 952
8.9000e+01 937
9.0000e+01 922
9.1000e+01 907
9.2000e+01 891
9.3000e+01 875
9.4000e+01 858
9.5000e+01 841
9.6000e+01 824
9.7000e+01 807
9.8000e+01 789
9.9000e+01 772
1.0000e+02 754
1.0100e+02 736
1.0200e+02 717
1.0300e+02 699
1.0400e+02 681
1.0500e+02 662
1.0600e+02 643
1.0700e+02 624
1.0800e+02 605
1.0900e+02 586
1.1000e+02 567
1.1100e+02 548
1.1200e+02 529
1.1300e+02 510
1.1400e+02 490
1.1500e+02 471
1.1600e+02 452
1.1700e+02 433
1.1800e+02 413
1.1900e+02 394
1.2000e+02 375
1.2100e+02 355
1.2200e+02 336
1.2300e+02 317
1.2400e+02 298
1.2500e+02 278
1.2600e+02 259
1.2700e+02 240
1.2800e+02 221
1.2900e+02 202
1.3000e+02 183
1.3100e+02 165
1.3200e+02 146
1.3300e+02 127
1.3400e+02 109
1.3500e+02 90
1.3600e+02 72
1.3700e+02 54
1.3800e+02 35
1.3900e+02 17
1.4000e+02 1
# Discrete spectrum
# Dimension: 4
5.7980e+01 3525
5.9320e+01 6436
6.7200e+01 2732
6.9100e+01 753
